  41
Tempo - segundos
VAng: 8100-3010 XINGU--PA500-E
VAng: 8100-9605 XINGU--PA500-T
VAng: 8100-210 XINGU--PA500-IT
VAng: 3010-210 ESTREI-MG500-IT
VAng: 9605-210 T.RIO--RJ500-IT
VAng: 5001-210 P.AFON-BA500-IT
VAng: 8892-210 RIOVT1-RN500-IT
Freq(pu): 8100 XINGU--PA500   
Freq(pu): 3010 ESTREI-MG500   
Freq(pu): 9605 T.RIO--RJ500   
Freq(pu): 5001 P.AFON-BA500   
Freq(pu): 8892 RIOVT1-RN500   
dFreq(pu/s): 8100 XINGU--PA500
dFreq(pu/s): 3010 ESTREI-MG500
dFreq(pu/s): 9605 T.RIO--RJ500
dFreq(pu/s): 5001 P.AFON-BA500
dFreq(pu/s): 8892 RIOVT1-RN500
VAng: 8100-3010 XINGU--PA500-E
VAng: 8100-9605 XINGU--PA500-T
VAng: 3010-18 ESTREI-MG500-ITU
VAng: 9605-18 T.RIO--RJ500-ITU
VAng: 5001-18 P.AFON-BA500-ITU
VAng: 8892-18 RIOVT1-RN500-ITU
VAng: 8100-18 XINGU--PA500-ITU
FNESE: UDV                    
FNS: UDV                      
PG1_N: UDV                    
PG1_N: UDV                    
PG2_NE: UDV                   
PG3_SE: UDV                   
Pr(pu): 8100#1 XINGU--PA500   
Pi(pu): 8100#1 XINGU--PA500   
Pr(pu): 8100#2 XINGU--PA500   
Pi(pu): 8100#2 XINGU--PA500   
Pi(pu): 8100#3 XINGU--PA500   
Pi(pu): 8100#4 XINGU--PA500   
Pr(pu): 8100#4 XINGU--PA500   
Pr(pu): 8100#3 XINGU--PA500   
Ang(deg): 8892 RIOVT1-RN500   
VAng: 8892-3010 RIOVT1-RN500-E
  0.0000000E+00   85.47894       89.91714       75.88738      -9.591562    
  -14.02976       49.66916       69.08982       1.000000       1.000000    
   1.000000       1.000000       1.000000      0.0000000E+00  0.0000000E+00
  0.0000000E+00  0.0000000E+00  0.0000000E+00   85.47894       89.91714    
  -14.70385      -19.14204       44.55687       63.97754       70.77509    
   6240.557       4327.931       14510.68       14510.68       3022.995    
   2576.194       7.509986       7.387553       7.509986       7.387553    
   18.94960       18.94960       19.99996       19.99996       70.28847    
   78.68139    
  4.0000002E-03   85.48131       89.91881       75.89000      -9.591304    
  -14.02881       49.66870       69.09077      0.9999993      0.9999952    
  0.9999964      0.9999939      0.9999962     -2.6047789E-04 -1.7174649E-03
 -1.2861806E-03 -2.2317665E-03 -1.4197766E-03   85.48131       89.91881    
  -14.70467      -19.14217       44.55534       63.97740       70.77663    
   6242.837       4328.199       14510.89       14510.89       3023.624    
   2576.510       7.509654       7.387453       7.509654       7.387453    
   18.94971       18.94971       19.99966       19.99966       70.28639    
   78.68207    
  8.0000004E-03   85.48439       89.92101       75.89339      -9.590999    
  -14.02762       49.66791       69.09155      0.9999983      0.9999887    
  0.9999915      0.9999854      0.9999906     -2.2986313E-04 -1.5901877E-03
 -1.2084114E-03 -2.1043972E-03 -1.4694154E-03   85.48439       89.92101    
  -14.70564      -19.14226       44.55326       63.97690       70.77874    
   6245.865       4328.604       14511.21       14511.21       3024.495    
   2576.909       7.509050       7.387107       7.509050       7.387107    
   18.94975       18.94975       19.99925       19.99925       70.28326    
   78.68254    
  1.2000000E-02   85.48737       89.92318       75.89660      -9.590774    
  -14.02659       49.66694       69.09173      0.9999976      0.9999837    
  0.9999875      0.9999785      0.9999850     -1.6865558E-04 -1.0984526E-03
 -8.6807186E-04 -1.5120383E-03 -1.2848243E-03   85.48737       89.92318    
  -14.70648      -19.14229       44.55124       63.97602       70.78089    
   6248.655       4329.028       14511.61       14511.61       3025.357    
   2577.266       7.508310       7.386497       7.508310       7.386497    
   18.94963       18.94963       19.99895       19.99895       70.27972    
   78.68250    
  1.6000001E-02   85.48931       89.92467       75.89862      -9.590695    
  -14.02605       49.66621       69.09135      0.9999972      0.9999819    
  0.9999860      0.9999760      0.9999822     -8.5864609E-05 -4.4287796E-04
 -3.8538550E-04 -6.1730371E-04 -7.2437804E-04   85.48931       89.92467    
  -14.70688      -19.14223       44.55003       63.97516       70.78244    
   6250.318       4329.334       14511.95       14511.95       3025.909    
   2577.455       7.507739       7.385839       7.507739       7.385839    
   18.94936       18.94936       19.99885       19.99885       70.27696    
   78.68204    
  2.0000000E-02   85.49042       89.92558       75.89974      -9.590681    
  -14.02584       49.66564       69.09052      0.9999970      0.9999821    
  0.9999860      0.9999762      0.9999807     -4.2537478E-05  6.4837375E-05
 -1.2475455E-05  2.4706564E-05 -3.5185521E-04   85.49042       89.92558    
  -14.70697      -19.14213       44.54935       63.97423       70.78344    
   6251.055       4329.518       14512.22       14512.22       3026.228    
   2577.525       7.507467       7.385336       7.507467       7.385336    
   18.94903       18.94903       19.99887       19.99887       70.27474    
   78.68120    
  2.4000000E-02   85.49100       89.92609       75.90036      -9.590641    
  -14.02573       49.66518       69.08958      0.9999968      0.9999833    
  0.9999866      0.9999774      0.9999803     -4.5608758E-05  2.9316987E-04
  1.6595445E-04  3.0388846E-04 -1.1963592E-04   85.49100       89.92609    
  -14.70690      -19.14199       44.54892       63.97332       70.78410    
   6251.290       4329.612       14512.45       14512.45       3026.411    
   2577.537       7.507530       7.385124       7.507530       7.385124    
   18.94874       18.94874       19.99892       19.99892       70.27290    
   78.68023    
  2.8000001E-02   85.49128       89.92636       75.90074      -9.590534    
  -14.02562       49.66477       69.08869      0.9999966      0.9999847    
  0.9999875      0.9999788      0.9999803     -6.5855616E-05  3.6674624E-04
  2.3099735E-04  3.6391240E-04  1.0032607E-05   85.49128       89.92636    
  -14.70674      -19.14182       44.54856       63.97248       70.78454    
   6251.317       4329.649       14512.64       14512.64       3026.530    
   2577.527       7.507875       7.385223       7.507875       7.385223    
   18.94854       18.94854       19.99897       19.99897       70.27129    
   78.67922    
  3.5999998E-02   85.49143       89.92657       75.90125      -9.590184    
  -14.02533       49.66396       69.08733      0.9999960      0.9999873    
  0.9999892      0.9999812      0.9999813     -7.1605355E-05  3.1788668E-04
  2.0631966E-04  2.9066161E-04  1.2439357E-04   85.49143       89.92657    
  -14.70634      -19.14148       44.54780       63.97118       70.78510    
   6251.284       4329.652       14512.92       14512.92       3026.684    
   2577.497       7.508939       7.386013       7.508939       7.386013    
   18.94837       18.94837       19.99896       19.99896       70.26874    
   78.67751    
  4.4000000E-02   85.49148       89.92670       75.90169      -9.589790    
  -14.02502       49.66299       69.08610      0.9999955      0.9999893    
  0.9999905      0.9999826      0.9999823     -6.0626477E-05  2.4243050E-04
  1.5639167E-04  1.8013084E-04  1.2011208E-04   85.49148       89.92670    
  -14.70598      -19.14121       44.54679       63.96991       70.78550    
   6251.254       4329.615       14513.10       14513.10       3026.837    
   2577.474       7.510043       7.387123       7.510043       7.387123    
   18.94833       18.94833       19.99884       19.99884       70.26640    
   78.67589    
  5.2000001E-02   85.49181       89.92706       75.90230      -9.589511    
  -14.02476       49.66198       69.08499      0.9999953      0.9999903    
  0.9999911      0.9999834      0.9999830     -2.9072473E-05  1.2700378E-04
  7.9527388E-05  9.8963610E-05  9.0180692E-05   85.49181       89.92706    
  -14.70581      -19.14107       44.54567       63.96870       70.78600    
   6251.283       4329.581       14513.20       14513.20       3026.992    
   2577.474       7.510654       7.387899       7.510654       7.387899    
   18.94828       18.94828       19.99866       19.99866       70.26416    
   78.67451    
  5.9999999E-02   85.49259       89.92775       75.90316      -9.589429    
  -14.02459       49.66112       69.08411      0.9999954      0.9999904    
  0.9999912      0.9999840      0.9999836      1.7645664E-06  1.9863617E-05
  9.7664188E-06  7.2215575E-05  8.0040496E-05   85.49259       89.92775    
  -14.70590      -19.14106       44.54465       63.96764       70.78670    
   6251.295       4329.553       14513.20       14513.20       3027.115    
   2577.495       7.510787       7.388235       7.510787       7.388235    
   18.94817       18.94817       19.99843       19.99843       70.26206    
   78.67354    
  7.5999998E-02   85.49473       89.92932       75.90511      -9.589612    
  -14.02421       49.65987       69.08294      0.9999951      0.9999896    
  0.9999908      0.9999847      0.9999846     -1.3505785E-05 -4.9375547E-05
 -2.4665380E-05  4.4765504E-05  5.9442136E-05   85.49473       89.92932    
  -14.70648      -19.14108       44.54300       63.96607       70.78825    
   6251.288       4329.527       14513.24       14513.24       3027.273    
   2577.562       7.510363       7.388031       7.510363       7.388031    
   18.94839       18.94839       19.99888       19.99888       70.25834    
   78.67255    
  9.2000000E-02   85.49730       89.93112       75.90734      -9.589954    
  -14.02378       49.65869       69.08170      0.9999948      0.9999884    
  0.9999901      0.9999846      0.9999845     -1.9818168E-05 -7.4106967E-05
 -4.3622280E-05 -2.7948995E-06 -6.1406636E-06   85.49730       89.93112    
  -14.70723      -19.14105       44.54142       63.96441       70.79006    
   6251.322       4329.540       14513.28       14513.28       3027.423    
   2577.647       7.509678       7.387392       7.509678       7.387392    
   18.94892       18.94892       19.99942       19.99942       70.25441    
   78.67165    
  0.1080000       85.49988       89.93303       75.90966      -9.590214    
  -14.02336       49.65734       69.08018      0.9999943      0.9999874    
  0.9999892      0.9999839      0.9999836     -3.2051656E-05 -6.3686988E-05
 -5.4378754E-05 -4.5090310E-05 -5.4450324E-05   85.49988       89.93303    
  -14.70785      -19.14100       44.53970       63.96254       70.79203    
   6251.419       4329.574       14513.33       14513.33       3027.581    
   2577.730       7.509128       7.386738       7.509128       7.386738    
   18.94884       18.94884       19.99931       19.99931       70.25013    
   78.67039    
  0.1240000       85.50236       89.93497       75.91203      -9.590325    
  -14.02294       49.65580       69.07856      0.9999936      0.9999866    
  0.9999883      0.9999828      0.9999826     -4.1108335E-05 -5.0113606E-05
 -5.6726381E-05 -6.6382061E-05 -6.5452921E-05   85.50236       89.93497    
  -14.70827      -19.14088       44.53786       63.96062       70.79409    
   6251.509       4329.604       14513.42       14513.42       3027.704    
   2577.804       7.508991       7.386515       7.508991       7.386515    
   18.94878       18.94878       19.99922       19.99922       70.24570    
   78.66888    
  0.1560000       85.50745       89.93907       75.91716      -9.590287    
  -14.02191       49.65260       69.07582      0.9999924      0.9999852    
  0.9999867      0.9999808      0.9999812     -3.8309645E-05 -4.5490568E-05
 -5.0058508E-05 -6.2617270E-05 -4.4647590E-05   85.50745       89.93907    
  -14.70867      -19.14029       44.53422       63.95744       70.79877    
   6251.614       4329.654       14513.59       14513.59       3027.728    
   2577.926       7.508965       7.386476       7.508965       7.386476    
   18.94846       18.94846       19.99887       19.99887       70.23726    
   78.66611    
  0.1880000       85.51285       89.94350       75.92288      -9.589969    
  -14.02062       49.64906       69.07288      0.9999914      0.9999838    
  0.9999853      0.9999787      0.9999794     -3.1141859E-05 -4.2690703E-05
 -4.4912918E-05 -6.6602151E-05 -5.5870682E-05   85.51285       89.94350    
  -14.70856      -19.13921       44.53047       63.95428       70.80429    
   6251.557       4329.683       14513.76       14513.76       3027.543    
   2578.016       7.508802       7.386353       7.508802       7.386353    
   18.94814       18.94814       19.99855       19.99855       70.22852    
   78.66284    
  0.2000000       85.51494       89.94522       75.92518      -9.589767    
  -14.02005       49.64744       69.07109      0.9999911      0.9999834    
  0.9999848      0.9999775      0.9999777     -2.3702874E-05 -3.8815695E-05
 -3.9893763E-05 -9.8982615E-05 -1.3868736E-04   85.51494       89.94522    
  -14.70838      -19.13866       44.52882       63.95248       70.80656    
   6251.454       4329.685       14513.86       14513.86       3027.478    
   2578.039       7.508676       7.386244       7.508676       7.386244    
   18.94807       18.94807       19.99859       19.99859       70.22455    
   78.66087    
  0.2000000       90.90879       93.31116       78.99429      -11.91451    
  -14.31688       50.54675       70.07738      0.9999911      0.9999834    
  0.9999848      0.9999775      0.9999777     -2.3702874E-05 -3.8815695E-05
 -3.9893763E-05 -9.8982615E-05 -1.3868736E-04   90.90879       93.31116    
  -17.37205      -19.77442       45.08921       64.61984       73.53674    
   6307.308       4429.797       13534.31       13534.31       3008.659    
   2744.589      0.0000000E+00  0.0000000E+00  0.0000000E+00  0.0000000E+00
   19.07154       19.07154       20.39712       20.39712       70.40022    
   81.99188    
  0.2040000       90.92397       93.25588       79.01852      -11.90545    
  -14.23736       50.58314       70.13623      0.9999391      0.9999315    
   1.000047      0.9999748       1.000003      8.5059023E-03 -1.7939083E-02
  1.4688727E-02 -3.3724892E-03  4.2644106E-03   90.92397       93.25588    
  -17.34694      -19.67886       45.14164       64.69473       73.57703    
   6316.280       4429.811       13545.73       13545.73       3010.610    
   2740.021      0.0000000E+00  0.0000000E+00  0.0000000E+00  0.0000000E+00
   19.21812       19.21812       20.53399       20.53399       70.41216    
   82.04167    
  0.2090000       90.99290       93.26085       79.09252      -11.90038    
  -14.16833       50.62207       70.18518      0.9999875      0.9998451    
   1.000061      0.9999459      0.9999875      1.0172084E-02 -1.7032659E-02
 -2.1100584E-03 -6.2019178E-03 -4.8622461E-03   90.99290       93.26085    
  -17.32688      -19.59483       45.19557       64.75869       73.66602    
   6330.542       4430.098       13532.24       13532.24       3015.269    
   2735.058      0.0000000E+00  0.0000000E+00  0.0000000E+00  0.0000000E+00
   19.34179       19.34179       20.53052       20.53052       70.40634    
   82.08556    
  0.2130000       91.06268       93.29839       79.15864      -11.90404    
  -14.13975       50.65242       70.21960       1.000034      0.9997754    
   1.000018      0.9999274      0.9999699      1.1908122E-02 -1.8215533E-02
 -1.3902578E-02 -4.0890467E-03 -4.1273362E-03   91.06268       93.29839    
  -17.32289      -19.55861       45.23357       64.80074       73.73978    
   6338.941       4431.154       13523.45       13523.45       3018.635    
   2731.958      0.0000000E+00  0.0000000E+00  0.0000000E+00  0.0000000E+00
   19.39405       19.39405       20.51538       20.51538       70.39775    
   82.12363    
  0.2170000       91.14678       93.36263       79.23189      -11.91490    
  -14.13074       50.68892       70.25878       1.000083      0.9997058    
  0.9999466      0.9999238      0.9999644      1.2393793E-02 -1.7409632E-02
 -1.7952640E-02 -9.0266328E-04 -1.3769295E-03   91.14678       93.36263    
  -17.32940      -19.54525       45.27442       64.84428       73.81738    
   6344.564       4432.785       13516.78       13516.78       3020.672    
   2729.761      0.0000000E+00  0.0000000E+00  0.0000000E+00  0.0000000E+00
   19.41366       19.41366       20.49550       20.49550       70.39373    
   82.17368    
  0.2210000       91.24150       93.44330       79.31074      -11.93076    
  -14.13256       50.72991       70.30172       1.000137      0.9996398    
  0.9998676      0.9999312      0.9999688      1.3460195E-02 -1.6487023E-02
 -1.9746454E-02  1.8439384E-03  1.0944254E-03   91.24150       93.44330    
  -17.34312      -19.54492       45.31754       64.88935       73.89837    
   6347.695       4434.805       13512.42       13512.42       3021.460    
   2727.951      0.0000000E+00  0.0000000E+00  0.0000000E+00  0.0000000E+00
   19.42003       19.42003       20.47557       20.47557       70.39447    
   82.23248    
  0.2250000       91.34534       93.53745       79.39461      -11.95073    
  -14.14285       50.77405       70.34770       1.000193      0.9995781    
  0.9997866      0.9999446      0.9999795      1.3936524E-02 -1.5423631E-02
 -2.0241948E-02  3.3583944E-03  2.6818523E-03   91.34534       93.53745    
  -17.36272      -19.55483       45.36207       64.93572       73.98262    
   6349.273       4437.137       13510.30       13510.30       3021.409    
   2726.447      0.0000000E+00  0.0000000E+00  0.0000000E+00  0.0000000E+00
   19.41255       19.41255       20.45634       20.45634       70.39900    
   82.29844    
  0.2290000       91.45647       93.64083       79.48296      -11.97352    
  -14.15788       50.81950       70.39536       1.000248      0.9995215    
  0.9997102      0.9999585      0.9999918      1.3813374E-02 -1.4166775E-02
 -1.9113924E-02  3.4680574E-03  3.0770004E-03   91.45647       93.64083    
  -17.38652      -19.57087       45.40650       64.98235       74.06995    
   6350.563       4439.825       13510.43       13510.43       3021.051    
   2725.273      0.0000000E+00  0.0000000E+00  0.0000000E+00  0.0000000E+00
   19.39974       19.39974       20.44026       20.44026       70.40538    
   82.36887    
  0.2370000       91.69248       93.86027       79.66876      -12.02372    
  -14.19151       50.90760       70.48936       1.000343      0.9994338    
  0.9995959      0.9999746       1.000008      1.1863431E-02 -1.0965025E-02
 -1.4280079E-02  2.0122312E-03  2.0423697E-03   91.69248       93.86027    
  -17.44113      -19.60891       45.49019       65.07195       74.25136    
   6355.017       4445.970       13515.85       13515.85       3020.779    
   2723.174      0.0000000E+00  0.0000000E+00  0.0000000E+00  0.0000000E+00
   19.37103       19.37103       20.41696       20.41696       70.41782    
   82.51308    
  0.2450000       91.94361       94.09029       79.86581      -12.07780    
  -14.22448       50.99368       70.58461       1.000428      0.9993634    
  0.9995142      0.9999815       1.000021      1.0634147E-02 -8.7958695E-03
 -1.0226225E-02  8.5681962E-04  1.5538801E-03   91.94361       94.09029    
  -17.50188      -19.64856       45.56960       65.16051       74.44172    
   6361.179       4452.667       13526.37       13526.37       3020.999    
   2721.222      0.0000000E+00  0.0000000E+00  0.0000000E+00  0.0000000E+00
   19.35917       19.35917       20.37841       20.37841       70.43113    
   82.66240    
  0.2530000       92.20960       94.33159       80.07552      -12.13409    
  -14.25608       51.07929       70.68189       1.000506      0.9993060    
  0.9994545      0.9999821       1.000029      9.7788954E-03 -7.1740211E-03
 -7.4546323E-03  8.1726896E-05  1.0980255E-03   92.20960       94.33159    
